File: Physics/PHYS 331 - Advanced Laboratory/PHYS 331 Experiments/PHYS 331 Raman Spectroscopy/PHYS 331 RS TiO2 Data/PHYS 331 RS TI02 Stokes (2 Sec) Run 2.csv
794.899,2748
795.109,3045
795.318,3582
795.528,4609
795.738,6057
795.948,7710
796.157,9230
796.367,10533
796.576,11546
796.786,12173
796.995,12756
797.205,13264
797.414,13783
797.623,14283
797.832,14628
798.041,14985
798.25,15496
798.459,15738
798.668,16122
798.877,16330
799.085,16456
799.294,16582
799.503,16671
799.711,16627
799.919,16482
800.128,16306
800.336,16064
800.544,15727
800.753,15246
800.961,15030
801.169,14670
801.377,14394
801.584,14318
801.792,13898
802,13752
802.208,13515
802.415,13339
802.623,13127
802.83,12797
803.038,12544
803.245,12290
803.452,12073
803.66,11805
803.867,11837
804.074,11867
804.281,11843
804.488,11905
804.695,12090
804.901,12216
805.108,12255
805.315,12289
805.521,12251
805.728,12300
805.934,12389
806.141,12457
806.347,12422
806.553,12469
806.759,12621
806.965,12696
807.171,12866
807.377,13009
807.583,12934
807.789,13045
807.995,13105
808.201,13032
808.406,13101
808.612,13150
808.817,13185
809.022,13220
809.228,13332
809.433,13502
809.638,13569
809.843,13813
810.048,14102
810.253,14460
810.458,15027
810.663,15604
810.868,16271
811.072,17160
811.277,18259
811.482,19411
811.686,20924
811.89,22378
812.095,24139
812.299,25932
812.503,27738
812.707,29628
812.911,31530
813.115,32660
813.319,33354
813.523,32986
813.727,31528
813.93,29398
814.134,26910
814.337,24217
814.541,21517
814.744,19358
814.947,17536
815.151,16043
815.354,14932
815.557,13976
815.76,13279
815.963,12674
816.166,12177
816.368,11854
816.571,11551
816.774,11377
816.976,11205
817.179,11094
817.381,11112
817.584,11021
817.786,10976
817.988,11023
818.19,11055
818.392,11071
818.594,11004
818.796,11030
818.998,11074
819.2,11060
819.401,11228
819.603,11210
819.804,11321
820.006,11490
820.207,11625
820.409,11790
820.61,12091
820.811,12235
821.012,12604
821.213,13023
821.414,13416
821.615,13954
821.816,14655
822.016,15216
822.217,16141
822.417,16978
822.618,18000
822.818,19070
823.019,20458
823.219,21683
823.419,23121
823.619,24502
823.819,25831
824.019,26711
824.219,26854
824.419,26781
824.618,25769
824.818,24453
825.018,22735
825.217,21004
825.417,19360
825.616,17884
825.815,16514
826.014,15420
826.213,14411
826.412,13693
826.611,13025
826.81,12555
827.009,12030
827.208,11672
827.406,11304
827.605,11119
827.803,10899
828.002,10634
828.2,10479
828.398,10234
828.596,10138
828.795,9981
828.993,9883
829.191,9672
829.388,9586
829.586,9460
829.784,9429
829.981,9316
830.179,9257
830.377,9046
830.574,8970
830.771,8900
830.968,8796
831.166,8667
831.363,8540
831.56,8477
831.757,8427
831.953,8289
832.15,8162
832.347,8074
832.543,7974
832.74,7865
832.936,7761
833.133,7677
833.329,7642
833.525,7490
833.721,7429
833.917,7421
834.113,7306
834.309,7238
834.505,7280
834.701,7145
834.897,7105
835.092,7152
835.288,7083
835.483,7056
835.678,7042
835.874,7012
836.069,7043
836.264,6905
836.459,6905
836.654,6918
836.849,6856
837.043,6912
837.238,6765
837.433,6732
837.627,6846
837.822,6748
838.016,6711
838.21,6744
838.404,6672
838.599,6765
838.793,6731
838.987,6603
839.18,6662
839.374,6627
839.568,6583
839.762,6596
839.955,6613
840.149,6554
840.342,6559
840.535,6573
840.729,6550
840.922,6513
841.115,6437
841.308,6440
841.501,6438
841.694,6446
841.886,6396
842.079,6362
842.271,6377
842.464,6309
842.656,6313
842.849,6297
843.041,6293
843.233,6256
843.425,6298
843.617,6300
843.809,6316
844.001,6250
844.193,6221
844.384,6233
844.576,6295
844.767,6213
844.959,6206
845.15,6261
845.341,6255
845.533,6228
845.724,6212
845.915,6204
846.106,6125
846.249,6174