File: Physics/PHYS 331 - Advanced Laboratory/PHYS 331 Experiments/PHYS 331 Raman Spectroscopy/PHYS 331 RS TiO2 Data/PHYS 331 RS TI02 Stokes (3 Sec) Run 1.csv
794.899,3793
795.109,4246
795.318,5014
795.528,6533
795.738,8706
795.948,11148
796.157,13414
796.367,15295
796.576,16692
796.786,17863
796.995,18558
797.205,19265
797.414,20015
797.623,20739
797.832,21496
798.041,21707
798.25,22476
798.459,22933
798.668,23478
798.877,23829
799.085,24187
799.294,24268
799.503,24402
799.711,24344
799.919,24202
800.128,23886
800.336,23368
800.544,22747
800.753,22309
800.961,21878
801.169,21311
801.377,20976
801.584,20612
801.792,20453
802,20074
802.208,19752
802.415,19256
802.623,19075
802.83,18620
803.038,18157
803.245,17748
803.452,17453
803.66,17214
803.867,17200
804.074,17125
804.281,17318
804.488,17362
804.695,17518
804.901,17721
805.108,17849
805.315,17878
805.521,17973
805.728,17854
805.934,17977
806.141,18090
806.347,18112
806.553,18226
806.759,18405
806.965,18632
807.171,18802
807.377,18806
807.583,18931
807.789,19026
807.995,19101
808.201,18961
808.406,19050
808.612,19201
808.817,19097
809.022,19158
809.228,19429
809.433,19533
809.638,19934
809.843,20232
810.048,20612
810.253,21158
810.458,21792
810.663,22684
810.868,23919
811.072,25266
811.277,26750
811.482,28441
811.686,30523
811.89,32983
812.095,35608
812.299,38172
812.503,40893
812.707,43825
812.911,46271
813.115,48148
813.319,49068
813.523,48661
813.727,46575
813.93,43473
814.134,39474
814.337,35604
814.541,31760
814.744,28281
814.947,25670
815.151,23464
815.354,21713
815.557,20458
815.76,19264
815.963,18371
816.166,17576
816.368,17230
816.571,16773
816.774,16446
816.976,16309
817.179,16174
817.381,16137
817.584,16020
817.786,15916
817.988,16065
818.19,15951
818.392,16009
818.594,15979
818.796,16063
818.998,16056
819.2,16064
819.401,16144
819.603,16271
819.804,16492
820.006,16524
820.207,16839
820.409,17100
820.61,17463
820.811,17741
821.012,18354
821.213,18824
821.414,19601
821.615,20301
821.816,21206
822.016,22389
822.217,23511
822.417,24833
822.618,26118
822.818,27970
823.019,29844
823.219,31939
823.419,33976
823.619,36119
823.819,38000
824.019,39426
824.219,39765
824.419,39449
824.618,37955
824.818,35885
825.018,33406
825.217,30919
825.417,28268
825.616,26240
825.815,24134
826.014,22479
826.213,21029
826.412,19931
826.611,19018
826.81,18235
827.009,17615
827.208,17051
827.406,16586
827.605,16131
827.803,15731
828.002,15405
828.2,15205
828.398,14866
828.596,14646
828.795,14460
828.993,14216
829.191,14059
829.388,13848
829.586,13740
829.784,13621
829.981,13392
830.179,13268
830.377,13065
830.574,12955
830.771,12761
830.968,12623
831.166,12514
831.363,12347
831.56,12255
831.757,12026
831.953,11895
832.15,11794
832.347,11497
832.543,11485
832.74,11287
832.936,11245
833.133,11055
833.329,10842
833.525,10776
833.721,10647
833.917,10630
834.113,10493
834.309,10374
834.505,10381
834.701,10247
834.897,10206
835.092,10269
835.288,10108
835.483,10117
835.678,10175
835.874,9999
836.069,10009
836.264,9938
836.459,9931
836.654,9873
836.849,9787
837.043,9817
837.238,9751
837.433,9782
837.627,9780
837.822,9701
838.016,9630
838.21,9606
838.404,9571
838.599,9508
838.793,9578
838.987,9515
839.18,9493
839.374,9508
839.568,9465
839.762,9461
839.955,9485
840.149,9336
840.342,9323
840.535,9279
840.729,9257
840.922,9302
841.115,9272
841.308,9246
841.501,9221
841.694,9152
841.886,9172
842.079,9056
842.271,9102
842.464,9055
842.656,9025
842.849,9014
843.041,8985
843.233,9038
843.425,9023
843.617,9031
843.809,9005
844.001,8939
844.193,8969
844.384,8963
844.576,8936
844.767,8885
844.959,8926
845.15,8969
845.341,8929
845.533,8918
845.724,8830
845.915,8913
846.106,8770
846.249,8883