File: Physics/PHYS 331 - Advanced Laboratory/PHYS 331 Experiments/PHYS 331 Raman Spectroscopy/PHYS 331 RS TiO2 Data/PHYS 331 RS TI02 Stokes (4 Sec) Run 1.csv
794.899,4955
795.109,5504
795.318,6547
795.528,8553
795.738,11500
795.948,14703
796.157,17656
796.367,20329
796.576,22292
796.786,23695
796.995,24621
797.205,25779
797.414,26873
797.623,27750
797.832,28645
798.041,29330
798.25,29991
798.459,30652
798.668,31366
798.877,31866
799.085,32221
799.294,32457
799.503,32550
799.711,32574
799.919,32440
800.128,31921
800.336,31276
800.544,30476
800.753,29796
800.961,29110
801.169,28485
801.377,28044
801.584,27680
801.792,27130
802,26771
802.208,26260
802.415,25846
802.623,25489
802.83,24770
803.038,24201
803.245,23761
803.452,23163
803.66,22959
803.867,22881
804.074,22864
804.281,22973
804.488,23240
804.695,23433
804.901,23578
805.108,23673
805.315,23751
805.521,23722
805.728,23895
805.934,23987
806.141,23972
806.347,24112
806.553,24347
806.759,24471
806.965,24749
807.171,25018
807.377,25039
807.583,25209
807.789,25285
807.995,25329
808.201,25298
808.406,25419
808.612,25559
808.817,25451
809.022,25583
809.228,25776
809.433,26054
809.638,26390
809.843,26906
810.048,27399
810.253,28314
810.458,29110
810.663,30397
810.868,31827
811.072,33644
811.277,35646
811.482,38245
811.686,40888
811.89,44073
812.095,47465
812.299,51138
812.503,54816
812.707,58529
812.911,62196
813.115,64329
813.319,65535
813.523,65128
813.727,62477
813.93,58207
814.134,52916
814.337,47566
814.541,42434
814.744,37978
814.947,34352
815.151,31268
815.354,29184
815.557,27295
815.76,25744
815.963,24449
816.166,23522
816.368,23020
816.571,22357
816.774,21986
816.976,21574
817.179,21515
817.381,21260
817.584,21335
817.786,21339
817.988,21228
818.19,21207
818.392,21265
818.594,21236
818.796,21332
818.998,21257
819.2,21336
819.401,21514
819.603,21482
819.804,21861
820.006,21991
820.207,22458
820.409,22764
820.61,23107
820.811,23675
821.012,24532
821.213,25067
821.414,26025
821.615,27164
821.816,28420
822.016,29730
822.217,31442
822.417,33187
822.618,35007
822.818,37341
823.019,39862
823.219,42554
823.419,45372
823.619,48306
823.819,50954
824.019,52786
824.219,53257
824.419,52746
824.618,50863
824.818,48191
825.018,44845
825.217,41397
825.417,37974
825.616,35016
825.815,32268
826.014,29965
826.213,28124
826.412,26696
826.611,25252
826.81,24326
827.009,23328
827.208,22562
827.406,21930
827.605,21435
827.803,20948
828.002,20520
828.2,20239
828.398,19737
828.596,19488
828.795,19120
828.993,18791
829.191,18625
829.388,18426
829.586,18192
829.784,17930
829.981,17834
830.179,17547
830.377,17441
830.574,17153
830.771,16977
830.968,16680
831.166,16614
831.363,16372
831.56,16174
831.757,15948
831.953,15761
832.15,15525
832.347,15346
832.543,15046
832.74,14837
832.936,14731
833.133,14553
833.329,14336
833.525,14209
833.721,14090
833.917,13947
834.113,13849
834.309,13653
834.505,13671
834.701,13585
834.897,13590
835.092,13428
835.288,13419
835.483,13308
835.678,13301
835.874,13309
836.069,13152
836.264,13096
836.459,13045
836.654,13052
836.849,13053
837.043,12900
837.238,12819
837.433,12845
837.627,12749
837.822,12676
838.016,12649
838.21,12618
838.404,12668
838.599,12588
838.793,12603
838.987,12583
839.18,12539
839.374,12475
839.568,12498
839.762,12463
839.955,12361
840.149,12355
840.342,12380
840.535,12260
840.729,12281
840.922,12141
841.115,12137
841.308,12204
841.501,12114
841.694,12026
841.886,12051
842.079,11962
842.271,11888
842.464,11935
842.656,11900
842.849,11861
843.041,11820
843.233,11816
843.425,11807
843.617,11836
843.809,11745
844.001,11702
844.193,11798
844.384,11731
844.576,11733
844.767,11796
844.959,11695
845.15,11704
845.341,11717
845.533,11702
845.724,11628
845.915,11694
846.106,11637
846.249,11627