File: Physics/PHYS 331 - Advanced Laboratory/PHYS 331 Experiments/PHYS 331 Raman Spectroscopy/PHYS 331 RS TiO2 Data/PHYS 331 RS TI02 Antistokes (4 Sec) Run 2.csv
724.376,4875
724.595,4981
724.815,5016
725.034,5077
725.253,5097
725.473,5161
725.692,5111
725.911,5119
726.13,5203
726.349,5147
726.568,5211
726.787,5210
727.006,5206
727.224,5243
727.443,5196
727.662,5182
727.88,5262
728.099,5237
728.317,5350
728.536,5250
728.754,5252
728.972,5311
729.19,5294
729.408,5340
729.627,5345
729.845,5393
730.062,5410
730.28,5422
730.498,5368
730.716,5402
730.934,5443
731.151,5499
731.369,5465
731.586,5532
731.804,5541
732.021,5568
732.238,5547
732.455,5618
732.673,5519
732.89,5632
733.107,5717
733.324,5727
733.541,5682
733.757,5787
733.974,5779
734.191,5869
734.408,5936
734.624,5971
734.841,5872
735.057,5929
735.273,6046
735.49,6088
735.706,6052
735.922,6071
736.138,6078
736.354,6141
736.57,6192
736.786,6233
737.002,6283
737.218,6380
737.433,6447
737.649,6490
737.865,6482
738.08,6546
738.296,6545
738.511,6637
738.726,6619
738.941,6683
739.157,6749
739.372,6701
739.587,6871
739.802,7006
740.017,7022
740.231,7070
740.446,7117
740.661,7159
740.876,7347
741.09,7468
741.305,7372
741.519,7522
741.733,7682
741.948,7723
742.162,7812
742.376,7906
742.59,8145
742.804,8266
743.018,8330
743.232,8409
743.446,8516
743.66,8786
743.873,8806
744.087,8913
744.3,9044
744.514,9127
744.727,9193
744.941,9325
745.154,9590
745.367,9807
745.58,10065
745.793,10530
746.006,10727
746.219,10942
746.432,11138
746.645,11329
746.857,11666
747.07,12079
747.282,12597
747.495,13215
747.707,13958
747.92,14675
748.132,15571
748.344,16467
748.556,17362
748.768,18297
748.98,18798
749.192,18880
749.404,18456
749.616,18199
749.828,17386
750.039,17004
750.251,16735
750.462,16369
750.674,16059
750.885,15723
751.096,15453
751.308,15334
751.519,15098
751.73,14894
751.941,15007
752.152,14933
752.363,14824
752.573,14860
752.784,15004
752.995,15075
753.205,15220
753.416,15237
753.626,15388
753.836,15646
754.047,15589
754.257,15959
754.467,16267
754.677,16212
754.887,16648
755.097,16741
755.307,16855
755.517,17443
755.726,17533
755.936,18074
756.145,18570
756.355,19617
756.564,20647
756.774,21939
756.983,23225
757.192,24985
757.401,27207
757.61,29372
757.819,31766
758.028,33267
758.237,33673
758.445,33452
758.654,32921
758.863,32052
759.071,30529
759.28,29717
759.488,28427
759.696,27901
759.904,26957
760.113,26827
760.321,26060
760.529,26155
760.737,25826
760.944,25665
761.152,25898
761.36,26020
761.567,26201
761.775,26375
761.982,26629
762.19,26961
762.397,26893
762.604,27338
762.812,27991
763.019,28203
763.226,28479
763.433,28845
763.639,29075
763.846,29542
764.053,29859
764.26,30087
764.466,30222
764.673,30582
764.879,30575
765.085,31418
765.292,31642
765.498,32018
765.704,32690
765.91,32921
766.116,32955
766.322,32556
766.527,31898
766.733,31650
766.939,32332
767.144,34119
767.35,37739
767.555,41443
767.761,45487
767.966,47620
768.171,50699
768.376,55045
768.581,57064
768.786,59794
768.991,59458
769.196,58819
769.4,56675
769.605,54735
769.81,52797
770.014,50913
770.218,49432
770.423,48094
770.627,46646
770.831,44825
771.035,43331
771.239,42445
771.443,41514
771.647,40790
771.851,40908
772.054,41130
772.258,42444
772.462,43077
772.665,44121
772.868,44869
773.072,46175
773.275,46596
773.478,47213
773.681,47664
773.884,48872
774.087,49878
774.29,50852
774.493,51058
774.695,52659
774.898,53355
775.1,55172
775.303,55751
775.505,56335
775.707,57276
775.91,59419
776.112,59149
776.314,60152
776.516,60107
776.718,59509
776.919,60831
777.121,60008
777.323,59925
777.524,61194
777.726,61411
777.927,62693
778.128,61974
778.279,61484