File: Physics/PHYS 331 - Advanced Laboratory/PHYS 331 Experiments/PHYS 331 Raman Spectroscopy/PHYS 331 RS TiO2 Data/PHYS 331 RS TI02 Antistokes (2 Sec) Run 2.csv
724.376,2772
724.595,2836
724.815,2863
725.034,2836
725.253,2850
725.473,2852
725.692,2844
725.911,2928
726.13,2941
726.349,2925
726.568,2912
726.787,2980
727.006,2936
727.224,2954
727.443,2954
727.662,2913
727.88,2979
728.099,2989
728.317,2983
728.536,2928
728.754,2932
728.972,2964
729.19,3019
729.408,2984
729.627,3005
729.845,3064
730.062,2997
730.28,3045
730.498,3012
730.716,3081
730.934,3053
731.151,3110
731.369,3068
731.586,3050
731.804,3111
732.021,3088
732.238,3104
732.455,3118
732.673,3187
732.89,3146
733.107,3126
733.324,3153
733.541,3196
733.757,3202
733.974,3239
734.191,3273
734.408,3255
734.624,3293
734.841,3308
735.057,3306
735.273,3343
735.49,3315
735.706,3377
735.922,3393
736.138,3347
736.354,3399
736.57,3449
736.786,3490
737.002,3470
737.218,3519
737.433,3486
737.649,3559
737.865,3608
738.08,3616
738.296,3621
738.511,3662
738.726,3647
738.941,3712
739.157,3750
739.372,3718
739.587,3733
739.802,3767
740.017,3833
740.231,3844
740.446,3928
740.661,3916
740.876,3949
741.09,3981
741.305,4066
741.519,4126
741.733,4209
741.948,4268
742.162,4267
742.376,4315
742.59,4412
742.804,4418
743.018,4437
743.232,4489
743.446,4555
743.66,4699
743.873,4715
744.087,4803
744.3,4912
744.514,4958
744.727,5035
744.941,5015
745.154,5146
745.367,5282
745.58,5374
745.793,5596
746.006,5637
746.219,5760
746.432,5903
746.645,6011
746.857,6233
747.07,6394
747.282,6599
747.495,7048
747.707,7287
747.92,7657
748.132,8199
748.344,8673
748.556,9179
748.768,9522
748.98,9830
749.192,9795
749.404,9758
749.616,9448
749.828,9143
750.039,8915
750.251,8730
750.462,8519
750.674,8479
750.885,8242
751.096,8146
751.308,8146
751.519,7970
751.73,7887
751.941,7897
752.152,7781
752.363,7844
752.573,7967
752.784,7939
752.995,7957
753.205,7991
753.416,8033
753.626,8043
753.836,8191
754.047,8163
754.257,8344
754.467,8423
754.677,8614
754.887,8670
755.097,8672
755.307,8798
755.517,8933
755.726,9155
755.936,9401
756.145,9701
756.355,10178
756.564,10684
756.774,11322
756.983,12060
757.192,12900
757.401,14008
757.61,15196
757.819,16282
758.028,16909
758.237,17254
758.445,17131
758.654,16798
758.863,16313
759.071,15803
759.28,15183
759.488,14564
759.696,14264
759.904,13907
760.113,13908
760.321,13496
760.529,13227
760.737,13352
760.944,13255
761.152,13238
761.36,13372
761.567,13582
761.775,13471
761.982,13686
762.19,13820
762.397,13865
762.604,14134
762.812,14361
763.019,14486
763.226,14525
763.433,14695
763.639,15038
763.846,15160
764.053,15130
764.26,15462
764.466,15573
764.673,15726
764.879,15690
765.085,16038
765.292,16166
765.498,16318
765.704,16640
765.91,16783
766.116,16881
766.322,16703
766.527,16374
766.733,16157
766.939,16527
767.144,17451
767.35,19235
767.555,21100
767.761,23060
767.966,24013
768.171,25943
768.376,27945
768.581,29228
768.786,30176
768.991,30218
769.196,29678
769.4,28633
769.605,27817
769.81,26922
770.014,26167
770.218,25235
770.423,24678
770.627,23624
770.831,22634
771.035,22121
771.239,21488
771.443,21059
771.647,20841
771.851,20725
772.054,20927
772.258,21238
772.462,21600
772.665,22370
772.868,22726
773.072,23061
773.275,23629
773.478,23850
773.681,24285
773.884,24977
774.087,25060
774.29,25618
774.493,26024
774.695,26389
774.898,27407
775.1,27761
775.303,28183
775.505,28044
775.707,29024
775.91,29881
776.112,29844
776.314,30392
776.516,30128
776.718,30168
776.919,30248
777.121,30435
777.323,30163
777.524,30589
777.726,31273
777.927,31103
778.128,30739
778.279,30989