File: Physics/PHYS 331 - Advanced Laboratory/PHYS 331 Experiments/PHYS 331 Raman Spectroscopy/PHYS 331 RS TiO2 Data/PHYS 331 RS TI02 Antistokes (3 Sec) Run 1.csv
724.376,3827
724.595,3912
724.815,3884
725.034,3966
725.253,3891
725.473,3914
725.692,3948
725.911,4010
726.13,4013
726.349,4032
726.568,4054
726.787,4024
727.006,4037
727.224,4063
727.443,4052
727.662,4053
727.88,4111
728.099,4100
728.317,4086
728.536,4114
728.754,4050
728.972,4128
729.19,4096
729.408,4188
729.627,4140
729.845,4222
730.062,4151
730.28,4210
730.498,4203
730.716,4224
730.934,4251
731.151,4234
731.369,4276
731.586,4259
731.804,4332
732.021,4341
732.238,4350
732.455,4338
732.673,4339
732.89,4353
733.107,4373
733.324,4404
733.541,4405
733.757,4401
733.974,4472
734.191,4441
734.408,4555
734.624,4545
734.841,4618
735.057,4608
735.273,4684
735.49,4691
735.706,4682
735.922,4753
736.138,4734
736.354,4782
736.57,4778
736.786,4860
737.002,4837
737.218,4935
737.433,4962
737.649,5035
737.865,5002
738.08,4972
738.296,5058
738.511,5093
738.726,5149
738.941,5128
739.157,5148
739.372,5289
739.587,5238
739.802,5287
740.017,5403
740.231,5426
740.446,5464
740.661,5472
740.876,5533
741.09,5656
741.305,5622
741.519,5815
741.733,5891
741.948,6004
742.162,5946
742.376,6102
742.59,6267
742.804,6354
743.018,6326
743.232,6372
743.446,6446
743.66,6579
743.873,6713
744.087,6774
744.3,6843
744.514,7042
744.727,7073
744.941,7121
745.154,7225
745.367,7499
745.58,7698
745.793,8050
746.006,8092
746.219,8386
746.432,8444
746.645,8699
746.857,8959
747.07,9228
747.282,9524
747.495,10021
747.707,10475
747.92,11106
748.132,11850
748.344,12583
748.556,13218
748.768,13839
748.98,14148
749.192,14184
749.404,14080
749.616,13662
749.828,13250
750.039,12903
750.251,12566
750.462,12325
750.674,12118
750.885,11857
751.096,11721
751.308,11519
751.519,11301
751.73,11249
751.941,11273
752.152,11209
752.363,11180
752.573,11224
752.784,11358
752.995,11445
753.205,11469
753.416,11617
753.626,11558
753.836,11781
754.047,11874
754.257,12026
754.467,12222
754.677,12293
754.887,12435
755.097,12647
755.307,12624
755.517,13137
755.726,13225
755.936,13684
756.145,14155
756.355,14710
756.564,15435
756.774,16556
756.983,17535
757.192,18829
757.401,20450
757.61,22297
757.819,23714
758.028,24921
758.237,25502
758.445,25196
758.654,24513
758.863,24024
759.071,23030
759.28,22359
759.488,21341
759.696,20911
759.904,20295
760.113,20191
760.321,19657
760.529,19477
760.737,19485
760.944,19292
761.152,19363
761.36,19406
761.567,19784
761.775,19765
761.982,19894
762.19,20230
762.397,20202
762.604,20394
762.812,20861
763.019,21204
763.226,21117
763.433,21459
763.639,21862
763.846,22204
764.053,22407
764.26,22778
764.466,22750
764.673,22889
764.879,22977
765.085,23590
765.292,23802
765.498,23946
765.704,24399
765.91,24707
766.116,24775
766.322,24314
766.527,24056
766.733,23649
766.939,24154
767.144,25858
767.35,28189
767.555,30980
767.761,34069
767.966,35329
768.171,38014
768.376,41338
768.581,42781
768.786,44579
768.991,44533
769.196,43942
769.4,42393
769.605,40766
769.81,39323
770.014,38246
770.218,37156
770.423,36132
770.627,34699
770.831,33494
771.035,32403
771.239,32014
771.443,31162
771.647,30655
771.851,30527
772.054,30990
772.258,31267
772.462,32193
772.665,33067
772.868,33636
773.072,34344
773.275,34805
773.478,35122
773.681,35829
773.884,36652
774.087,37531
774.29,37999
774.493,38702
774.695,39428
774.898,40050
775.1,41281
775.303,41851
775.505,41963
775.707,43332
775.91,44354
776.112,44076
776.314,45323
776.516,44483
776.718,44038
776.919,45423
777.121,44970
777.323,44543
777.524,45692
777.726,46211
777.927,46438
778.128,46031
778.279,45746