File: Physics/PHYS 331 - Advanced Laboratory/PHYS 331 Experiments/PHYS 331 Raman Spectroscopy/PHYS 331 RS TiO2 Data/PHYS 331 RS TI02 Antistokes (3 Sec) Run 2.csv
724.376,3807
724.595,3887
724.815,3867
725.034,3931
725.253,3949
725.473,3903
725.692,4008
725.911,3989
726.13,4023
726.349,4028
726.568,4077
726.787,4059
727.006,4067
727.224,4086
727.443,4035
727.662,4014
727.88,4137
728.099,4054
728.317,4073
728.536,4102
728.754,4098
728.972,4066
729.19,4127
729.408,4164
729.627,4152
729.845,4213
730.062,4129
730.28,4177
730.498,4166
730.716,4212
730.934,4234
731.151,4250
731.369,4227
731.586,4296
731.804,4261
732.021,4291
732.238,4317
732.455,4330
732.673,4392
732.89,4316
733.107,4356
733.324,4369
733.541,4385
733.757,4411
733.974,4468
734.191,4516
734.408,4567
734.624,4526
734.841,4569
735.057,4583
735.273,4624
735.49,4651
735.706,4719
735.922,4724
736.138,4767
736.354,4754
736.57,4751
736.786,4807
737.002,4819
737.218,4886
737.433,4946
737.649,4978
737.865,5072
738.08,5061
738.296,5100
738.511,5111
738.726,5087
738.941,5101
739.157,5227
739.372,5281
739.587,5253
739.802,5329
740.017,5401
740.231,5399
740.446,5492
740.661,5531
740.876,5565
741.09,5717
741.305,5661
741.519,5803
741.733,5924
741.948,5976
742.162,5972
742.376,6086
742.59,6230
742.804,6328
743.018,6288
743.232,6429
743.446,6482
743.66,6631
743.873,6751
744.087,6883
744.3,6917
744.514,6923
744.727,7123
744.941,7159
745.154,7268
745.367,7454
745.58,7730
745.793,7979
746.006,8101
746.219,8237
746.432,8380
746.645,8664
746.857,8822
747.07,9237
747.282,9539
747.495,10010
747.707,10496
747.92,11119
748.132,11828
748.344,12529
748.556,13276
748.768,13877
748.98,14091
749.192,14152
749.404,14138
749.616,13710
749.828,13170
750.039,12833
750.251,12636
750.462,12367
750.674,12173
750.885,11779
751.096,11797
751.308,11529
751.519,11394
751.73,11258
751.941,11272
752.152,11231
752.363,11188
752.573,11276
752.784,11388
752.995,11483
753.205,11530
753.416,11591
753.626,11657
753.836,11861
754.047,11835
754.257,12049
754.467,12222
754.677,12348
754.887,12508
755.097,12661
755.307,12677
755.517,13096
755.726,13264
755.936,13610
756.145,14170
756.355,14739
756.564,15593
756.774,16592
756.983,17569
757.192,18787
757.401,20449
757.61,22219
757.819,23679
758.028,24941
758.237,25481
758.445,25179
758.654,24519
758.863,24039
759.071,22998
759.28,22390
759.488,21455
759.696,20981
759.904,20173
760.113,20191
760.321,19620
760.529,19500
760.737,19435
760.944,19292
761.152,19482
761.36,19398
761.567,19810
761.775,19761
761.982,20016
762.19,20215
762.397,20228
762.604,20447
762.812,20909
763.019,21090
763.226,21175
763.433,21374
763.639,21746
763.846,22136
764.053,22494
764.26,22731
764.466,22757
764.673,22988
764.879,22892
765.085,23591
765.292,23693
765.498,23846
765.704,24266
765.91,24666
766.116,24653
766.322,24365
766.527,23929
766.733,23677
766.939,24382
767.144,25852
767.35,28245
767.555,31028
767.761,34201
767.966,35344
768.171,37986
768.376,41326
768.581,43075
768.786,44645
768.991,44836
769.196,44020
769.4,42639
769.605,40832
769.81,39361
770.014,38439
770.218,37189
770.423,36357
770.627,34799
770.831,33664
771.035,32510
771.239,31978
771.443,31168
771.647,30450
771.851,30662
772.054,30944
772.258,31563
772.462,32309
772.665,33026
772.868,33668
773.072,34426
773.275,34930
773.478,35286
773.681,35937
773.884,36528
774.087,37448
774.29,38125
774.493,38653
774.695,39501
774.898,40011
775.1,41483
775.303,41637
775.505,42161
775.707,43158
775.91,44381
776.112,44290
776.314,45741
776.516,44907
776.718,44155
776.919,45557
777.121,45037
777.323,44589
777.524,45835
777.726,46261
777.927,46450
778.128,46144
778.279,45648