File: Physics/PHYS 331 (Advanced Laboratory)/PHYS 331 Experiments/PHYS 331 Raman Spectroscopy/PHYS 331 RS TiO2 Data/PHYS 331 RS TI02 Antistokes (4 Sec) Run 1.csv
724.376,4829
724.595,4989
724.815,5013
725.034,5020
725.253,5087
725.473,5094
725.692,5118
725.911,5132
726.13,5213
726.349,5220
726.568,5137
726.787,5202
727.006,5167
727.224,5220
727.443,5211
727.662,5192
727.88,5241
728.099,5228
728.317,5264
728.536,5251
728.754,5255
728.972,5245
729.19,5267
729.408,5308
729.627,5254
729.845,5431
730.062,5360
730.28,5426
730.498,5337
730.716,5350
730.934,5402
731.151,5471
731.369,5412
731.586,5535
731.804,5561
732.021,5635
732.238,5587
732.455,5548
732.673,5623
732.89,5590
733.107,5688
733.324,5648
733.541,5712
733.757,5790
733.974,5789
734.191,5833
734.408,5844
734.624,5936
734.841,5905
735.057,5924
735.273,6025
735.49,6059
735.706,6078
735.922,6057
736.138,6076
736.354,6108
736.57,6188
736.786,6238
737.002,6273
737.218,6406
737.433,6419
737.649,6452
737.865,6452
738.08,6598
738.296,6537
738.511,6605
738.726,6606
738.941,6677
739.157,6684
739.372,6775
739.587,6863
739.802,6900
740.017,7045
740.231,7071
740.446,7135
740.661,7203
740.876,7314
741.09,7437
741.305,7407
741.519,7524
741.733,7665
741.948,7719
742.162,7818
742.376,7867
742.59,8180
742.804,8213
743.018,8338
743.232,8441
743.446,8486
743.66,8658
743.873,8798
744.087,8998
744.3,9045
744.514,9227
744.727,9247
744.941,9267
745.154,9508
745.367,9774
745.58,10054
745.793,10378
746.006,10754
746.219,10901
746.432,11078
746.645,11295
746.857,11620
747.07,12186
747.282,12541
747.495,13139
747.707,13987
747.92,14564
748.132,15551
748.344,16454
748.556,17406
748.768,18307
748.98,18659
749.192,18877
749.404,18572
749.616,18163
749.828,17518
750.039,16904
750.251,16575
750.462,16306
750.674,16118
750.885,15659
751.096,15420
751.308,15245
751.519,15015
751.73,14861
751.941,14940
752.152,14859
752.363,14723
752.573,14856
752.784,15114
752.995,15088
753.205,15182
753.416,15289
753.626,15461
753.836,15706
754.047,15554
754.257,15904
754.467,16023
754.677,16292
754.887,16612
755.097,16714
755.307,16898
755.517,17450
755.726,17580
755.936,17960
756.145,18605
756.355,19595
756.564,20753
756.774,21857
756.983,23253
757.192,24994
757.401,26975
757.61,29523
757.819,31620
758.028,33356
758.237,33699
758.445,33571
758.654,32858
758.863,31957
759.071,30634
759.28,29550
759.488,28519
759.696,27737
759.904,27017
760.113,26866
760.321,26028
760.529,25868
760.737,25974
760.944,25628
761.152,25745
761.36,25911
761.567,26154
761.775,26269
761.982,26553
762.19,27025
762.397,26920
762.604,27228
762.812,27885
763.019,28111
763.226,28292
763.433,28815
763.639,28864
763.846,29469
764.053,29876
764.26,30083
764.466,30183
764.673,30477
764.879,30606
765.085,31469
765.292,31634
765.498,31929
765.704,32467
765.91,32869
766.116,33074
766.322,32533
766.527,31781
766.733,31503
766.939,32328
767.144,34183
767.35,37609
767.555,41263
767.761,45459
767.966,47571
768.171,50653
768.376,55036
768.581,57269
768.786,59638
768.991,59385
769.196,58984
769.4,56732
769.605,54344
769.81,52900
770.014,51162
770.218,49577
770.423,47948
770.627,46639
770.831,44892
771.035,43109
771.239,42194
771.443,41528
771.647,40620
771.851,40789
772.054,40952
772.258,42336
772.462,43044
772.665,44022
772.868,44707
773.072,45819
773.275,46345
773.478,46885
773.681,47792
773.884,48716
774.087,49664
774.29,50703
774.493,51159
774.695,52275
774.898,53455
775.1,55037
775.303,55511
775.505,56227
775.707,57407
775.91,59084
776.112,59147
776.314,60155
776.516,59760
776.718,59301
776.919,60540
777.121,59748
777.323,59593
777.524,61114
777.726,61358
777.927,62554
778.128,61810
778.279,61504