File: Physics/PHYS 331 (Advanced Laboratory)/PHYS 331 Experiments/PHYS 331 Raman Spectroscopy/PHYS 331 RS TiO2 Data/PHYS 331 RS TI02 Antistokes (2 Sec) Run 1.csv
724.376,2790
724.595,2754
724.815,2840
725.034,2851
725.253,2847
725.473,2829
725.692,2871
725.911,2920
726.13,2881
726.349,2901
726.568,2886
726.787,2930
727.006,2898
727.224,2912
727.443,2949
727.662,2951
727.88,2982
728.099,2942
728.317,2927
728.536,2986
728.754,2923
728.972,2910
729.19,2970
729.408,2976
729.627,2958
729.845,2986
730.062,2971
730.28,3037
730.498,3037
730.716,3019
730.934,3030
731.151,3062
731.369,3051
731.586,3035
731.804,3061
732.021,3109
732.238,3111
732.455,3132
732.673,3115
732.89,3153
733.107,3146
733.324,3139
733.541,3179
733.757,3200
733.974,3190
734.191,3245
734.408,3248
734.624,3242
734.841,3308
735.057,3371
735.273,3306
735.49,3320
735.706,3344
735.922,3385
736.138,3375
736.354,3401
736.57,3455
736.786,3358
737.002,3444
737.218,3533
737.433,3534
737.649,3568
737.865,3493
738.08,3603
738.296,3608
738.511,3618
738.726,3629
738.941,3626
739.157,3693
739.372,3712
739.587,3748
739.802,3788
740.017,3785
740.231,3836
740.446,3855
740.661,3920
740.876,3959
741.09,4018
741.305,4072
741.519,4126
741.733,4157
741.948,4199
742.162,4319
742.376,4248
742.59,4418
742.804,4428
743.018,4476
743.232,4468
743.446,4555
743.66,4688
743.873,4774
744.087,4820
744.3,4870
744.514,4926
744.727,4963
744.941,4980
745.154,5086
745.367,5273
745.58,5315
745.793,5567
746.006,5676
746.219,5777
746.432,5906
746.645,6045
746.857,6266
747.07,6438
747.282,6566
747.495,6899
747.707,7255
747.92,7696
748.132,8054
748.344,8552
748.556,9142
748.768,9522
748.98,9761
749.192,9706
749.404,9747
749.616,9493
749.828,9139
750.039,8876
750.251,8690
750.462,8459
750.674,8400
750.885,8217
751.096,8167
751.308,8088
751.519,7907
751.73,7919
751.941,7985
752.152,7790
752.363,7765
752.573,7896
752.784,7935
752.995,7990
753.205,7924
753.416,7991
753.626,8000
753.836,8161
754.047,8136
754.257,8260
754.467,8404
754.677,8436
754.887,8579
755.097,8656
755.307,8803
755.517,8933
755.726,9163
755.936,9387
756.145,9767
756.355,10098
756.564,10604
756.774,11306
756.983,12103
757.192,13027
757.401,13997
757.61,15142
757.819,16163
758.028,16888
758.237,17191
758.445,17098
758.654,16756
758.863,16326
759.071,15732
759.28,15160
759.488,14602
759.696,14232
759.904,13804
760.113,13773
760.321,13442
760.529,13249
760.737,13261
760.944,13284
761.152,13248
761.36,13292
761.567,13551
761.775,13406
761.982,13564
762.19,13847
762.397,13750
762.604,14021
762.812,14235
763.019,14363
763.226,14720
763.433,14720
763.639,14819
763.846,15230
764.053,15256
764.26,15508
764.466,15661
764.673,15683
764.879,15718
765.085,16062
765.292,16018
765.498,16254
765.704,16531
765.91,16770
766.116,16751
766.322,16762
766.527,16336
766.733,16189
766.939,16403
767.144,17449
767.35,19103
767.555,20997
767.761,23246
767.966,23938
768.171,25883
768.376,27962
768.581,29286
768.786,30186
768.991,30052
769.196,29609
769.4,28730
769.605,27728
769.81,26798
770.014,25898
770.218,25069
770.423,24500
770.627,23565
770.831,22643
771.035,22012
771.239,21622
771.443,21031
771.647,20876
771.851,20764
772.054,20781
772.258,21111
772.462,21598
772.665,22304
772.868,22495
773.072,23011
773.275,23356
773.478,23680
773.681,24170
773.884,24889
774.087,25129
774.29,25640
774.493,25999
774.695,26390
774.898,27149
775.1,27742
775.303,27912
775.505,28169
775.707,29202
775.91,29455
776.112,29728
776.314,30590
776.516,30153
776.718,30132
776.919,30387
777.121,30298
777.323,29906
777.524,30658
777.726,31308
777.927,31091
778.128,30730
778.279,30728