File: Physics/PHYS 331 (Advanced Laboratory)/PHYS 331 Experiments/PHYS 331 Raman Spectroscopy/PHYS 331 RS TiO2 Data/PHYS 331 RS TI02 Stokes (3 Sec) Run 2.csv
794.899,3882
795.109,4249
795.318,5043
795.528,6559
795.738,8689
795.948,11203
796.157,13289
796.367,15242
796.576,16682
796.786,17808
796.995,18605
797.205,19336
797.414,20040
797.623,20800
797.832,21335
798.041,21850
798.25,22480
798.459,22977
798.668,23421
798.877,23894
799.085,24054
799.294,24287
799.503,24294
799.711,24229
799.919,24159
800.128,23874
800.336,23376
800.544,22882
800.753,22302
800.961,21765
801.169,21305
801.377,21038
801.584,20725
801.792,20281
802,20089
802.208,19654
802.415,19331
802.623,19015
802.83,18598
803.038,18114
803.245,17713
803.452,17502
803.66,17321
803.867,17205
804.074,17224
804.281,17310
804.488,17424
804.695,17559
804.901,17731
805.108,17721
805.315,17837
805.521,17867
805.728,17942
805.934,18000
806.141,18038
806.347,18099
806.553,18223
806.759,18390
806.965,18527
807.171,18826
807.377,18762
807.583,18906
807.789,18925
807.995,19055
808.201,19043
808.406,19090
808.612,19158
808.817,19214
809.022,19232
809.228,19346
809.433,19560
809.638,19775
809.843,20210
810.048,20613
810.253,21042
810.458,21871
810.663,22708
810.868,23961
811.072,25128
811.277,26648
811.482,28491
811.686,30512
811.89,32857
812.095,35542
812.299,38307
812.503,40958
812.707,43614
812.911,46201
813.115,48276
813.319,48946
813.523,48440
813.727,46664
813.93,43392
814.134,39445
814.337,35419
814.541,31555
814.744,28351
814.947,25675
815.151,23458
815.354,21716
815.557,20378
815.76,19432
815.963,18315
816.166,17654
816.368,17284
816.571,16873
816.774,16456
816.976,16257
817.179,16204
817.381,16037
817.584,16070
817.786,15933
817.988,15918
818.19,15994
818.392,15998
818.594,16018
818.796,15989
818.998,15997
819.2,16073
819.401,16186
819.603,16285
819.804,16492
820.006,16622
820.207,16871
820.409,17038
820.61,17424
820.811,17837
821.012,18328
821.213,19054
821.414,19608
821.615,20281
821.816,21300
822.016,22285
822.217,23621
822.417,24903
822.618,26345
822.818,27974
823.019,29769
823.219,31870
823.419,34044
823.619,36105
823.819,37904
824.019,39265
824.219,39923
824.419,39319
824.618,37917
824.818,36016
825.018,33484
825.217,30856
825.417,28322
825.616,26128
825.815,23980
826.014,22440
826.213,21139
826.412,19866
826.611,18887
826.81,18126
827.009,17532
827.208,17014
827.406,16626
827.605,16137
827.803,15693
828.002,15501
828.2,15151
828.398,14907
828.596,14602
828.795,14432
828.993,14241
829.191,14040
829.388,13846
829.586,13704
829.784,13577
829.981,13437
830.179,13286
830.377,13096
830.574,13030
830.771,12791
830.968,12709
831.166,12414
831.363,12256
831.56,12257
831.757,12037
831.953,11899
832.15,11699
832.347,11533
832.543,11428
832.74,11172
832.936,11155
833.133,11024
833.329,10884
833.525,10665
833.721,10746
833.917,10654
834.113,10502
834.309,10449
834.505,10382
834.701,10250
834.897,10316
835.092,10264
835.288,10132
835.483,10151
835.678,10079
835.874,10020
836.069,10063
836.264,9928
836.459,9913
836.654,9870
836.849,9879
837.043,9773
837.238,9747
837.433,9786
837.627,9704
837.822,9696
838.016,9654
838.21,9566
838.404,9487
838.599,9609
838.793,9635
838.987,9521
839.18,9553
839.374,9512
839.568,9505
839.762,9492
839.955,9546
840.149,9419
840.342,9386
840.535,9357
840.729,9342
840.922,9272
841.115,9280
841.308,9272
841.501,9232
841.694,9159
841.886,9165
842.079,9060
842.271,9036
842.464,9034
842.656,9029
842.849,9042
843.041,9019
843.233,8943
843.425,8977
843.617,8958
843.809,8933
844.001,8983
844.193,8991
844.384,8957
844.576,8949
844.767,8919
844.959,8901
845.15,8934
845.341,8853
845.533,8790
845.724,8918
845.915,8850
846.106,8797
846.249,8821