File: Physics/PHYS 331 (Advanced Laboratory)/PHYS 331 Experiments/PHYS 331 Raman Spectroscopy/PHYS 331 RS TiO2 Data/PHYS 331 RS TI02 Stokes (2 Sec) Run 1.csv
794.899,2744
795.109,3064
795.318,3589
795.528,4684
795.738,6162
795.948,7737
796.157,9250
796.367,10493
796.576,11464
796.786,12212
796.995,12770
797.205,13266
797.414,13788
797.623,14209
797.832,14553
798.041,15152
798.25,15340
798.459,15773
798.668,15979
798.877,16282
799.085,16552
799.294,16556
799.503,16672
799.711,16669
799.919,16507
800.128,16350
800.336,16030
800.544,15644
800.753,15266
800.961,14855
801.169,14643
801.377,14406
801.584,14212
801.792,13872
802,13748
802.208,13540
802.415,13283
802.623,12970
802.83,12890
803.038,12517
803.245,12239
803.452,12052
803.66,11902
803.867,11917
804.074,11822
804.281,11782
804.488,12009
804.695,12093
804.901,12177
805.108,12300
805.315,12301
805.521,12348
805.728,12334
805.934,12359
806.141,12399
806.347,12470
806.553,12445
806.759,12646
806.965,12705
807.171,12972
807.377,12986
807.583,12942
807.789,13113
807.995,13252
808.201,13064
808.406,13071
808.612,13315
808.817,13141
809.022,13275
809.228,13324
809.433,13462
809.638,13609
809.843,13876
810.048,14179
810.253,14572
810.458,14978
810.663,15672
810.868,16351
811.072,17267
811.277,18284
811.482,19463
811.686,20862
811.89,22437
812.095,24119
812.299,25982
812.503,27736
812.707,29755
812.911,31410
813.115,32779
813.319,33259
813.523,32924
813.727,31617
813.93,29547
814.134,26890
814.337,24056
814.541,21623
814.744,19346
814.947,17651
815.151,16016
815.354,14832
815.557,13963
815.76,13212
815.963,12627
816.166,12241
816.368,11835
816.571,11635
816.774,11393
816.976,11109
817.179,11203
817.381,11058
817.584,11046
817.786,11006
817.988,11042
818.19,11046
818.392,11118
818.594,10998
818.796,11144
818.998,11138
819.2,11113
819.401,11159
819.603,11192
819.804,11266
820.006,11468
820.207,11641
820.409,11805
820.61,12014
820.811,12293
821.012,12586
821.213,12991
821.414,13423
821.615,14014
821.816,14663
822.016,15269
822.217,16180
822.417,17027
822.618,18007
822.818,19104
823.019,20329
823.219,21711
823.419,23104
823.619,24512
823.819,25911
824.019,26709
824.219,27057
824.419,26877
824.618,25904
824.818,24375
825.018,22795
825.217,21045
825.417,19391
825.616,17885
825.815,16587
826.014,15509
826.213,14544
826.412,13713
826.611,13095
826.81,12523
827.009,12127
827.208,11695
827.406,11464
827.605,11034
827.803,10813
828.002,10650
828.2,10411
828.398,10286
828.596,10205
828.795,9996
828.993,9859
829.191,9722
829.388,9594
829.586,9461
829.784,9397
829.981,9244
830.179,9125
830.377,9070
830.574,8999
830.771,8874
830.968,8803
831.166,8681
831.363,8532
831.56,8466
831.757,8380
831.953,8307
832.15,8198
832.347,7974
832.543,7917
832.74,7875
832.936,7757
833.133,7653
833.329,7583
833.525,7511
833.721,7396
833.917,7443
834.113,7235
834.309,7229
834.505,7192
834.701,7180
834.897,7204
835.092,7146
835.288,7056
835.483,7045
835.678,6985
835.874,7069
836.069,6955
836.264,6904
836.459,6913
836.654,6886
836.849,6841
837.043,6836
837.238,6801
837.433,6808
837.627,6784
837.822,6750
838.016,6755
838.21,6716
838.404,6680
838.599,6713
838.793,6641
838.987,6656
839.18,6584
839.374,6620
839.568,6611
839.762,6624
839.955,6575
840.149,6575
840.342,6574
840.535,6488
840.729,6484
840.922,6472
841.115,6505
841.308,6459
841.501,6412
841.694,6374
841.886,6394
842.079,6344
842.271,6319
842.464,6289
842.656,6390
842.849,6340
843.041,6172
843.233,6295
843.425,6300
843.617,6304
843.809,6300
844.001,6241
844.193,6266
844.384,6259
844.576,6274
844.767,6243
844.959,6214
845.15,6263
845.341,6205
845.533,6239
845.724,6243
845.915,6198
846.106,6207
846.249,6175